File: CuClQDs/XRD&XRF/20190611/A56_2thetaomega_2θ_ω.asc
*TYPE		=  Raw
*CLASS		=  ASCII CLASS
*SAMPLE		=  A56
*COMMENT	=
*FNAME		=  A56_2thetaomega_2θ_ω.asc
*DATE		=  11-Jun-19 12:31

*GROUP_COUNT	=  1
*GONIO		=  SmartLab(In-plane), 0.000000
*ATTACHMENT	=  χφZクレードル
*ASC		=  0, 0, 0.000000, 0.000000
*I_MONOCHRO	=  Ge(220)x2, 0.000000
*FILTER		=  None
*C_MONOCHRO	=  No_unit, 0.000000
*SLIT_NAME	=  0, 入射スリット
*SLIT_NAME	=  1, 受光スリット1
*SLIT_NAME	=  2, 受光スリット2
*COUNTER	=  HyPix 3000(H), 0
*POS_FORMAT	=  0
*SCAN_AXIS	=  2Theta/Omega
*MEAS_MODE	=  Continuous Scanning
*TARGET		=  29
*XRAY_CHAR	=  K-ALPHA1
*WAVE_LENGTH1	=  1.54059
*WAVE_LENGTH2	=  1.54441
*THICKNESS	=  0, 0.000000
*MU		=  0, 0.000000
*SCAN_MODE	=  2Theta/Omega
*SPEED_DIM	=  sec./step
*XUNIT		=  deg.
*YUNIT		=  counts
*SCALE_MODE	=  1
*REP_COUNT	=  0
*SE_COUNT	=  0
*STD_MATERIAL	=  Unknown, Unknown, 0.000000, 0.000000, 0.000000, 0.000000, 0.000000, 0.000000
*LATT_CONS	=  0, Unknown, Unknown, 0.000000, 0.000000, 0.000000, 0.000000, 0.000000, 0.000000
*SEC_COUNT	=  1
*TSPEC_SIZE	=  0
*EXTRA_SIZE	=  0
*MEMO		=

*BEGIN
*GROUP		=  0
*START		=  20
*STOP		=  90
*STEP		=  0.01
*OFFSET		=  0.000000
*SPEED		=  0.116312
*SLIT_SPEC	=  0, 0.500mm, 0.5, 0.000000
*SLIT_SPEC	=  1, 0.500mm, 0.5, 0.000000
*SLIT_SPEC	=  2, 0.500mm, 0.5, 0.000000
*KV		=  45
*MA		=  200
*LOW		=  0.000000
*HIGH		=  0.000000
*CTEMPER	=  0, 0.000000
*CTEMPER	=  1, 0.000000
*CTEMPER	=  2, 0.000000
*PAREX		=  0, 0.000000
*PAREX		=  1, 0.000000
*PAREX		=  2, 0.000000
*PAREX		=  3, 0.000000
*PAREX		=  4, 0.000000
*PAREX		=  5, 0.000000
*PAREX		=  6, 0.000000
*PAREX		=  7, 0.000000
*PAREX		=  8, 0.000000
*PAREX		=  9, 0.000000
*PAREX		=  10, 0.000000
*PAREX		=  11, 0.000000
*PAREX		=  12, 0.000000
*PAREX		=  13, 0.000000
*PAREX		=  14, 0.000000
*PAREX		=  15, 0.000000
*FULL_SCALE	=  180434
*INDEX		=  0, 0, 0
*COUNT		=  7001
0.000000, 0.99407, 0.987896, 0.000000
0.000000, 0.000000, 0.000000, 0.000000
1.00323, 0.982377, 0.000000, 0.000000
0.000000, 0.000000, 0.000000, 0.000000
0.978235, 0.000000, 0.000000, 0.000000
0.000000, 0.000000, 0.000000, 0.000000
0.000000, 0.000000, 0.000000, 0.000000
0.000000, 0.000000, 0.993812, 0.000000
0.000000, 0.000000, 0.000000, 0.000000
0.000000, 0.000000, 0.000000, 0.000000
0.000000, 0.000000, 0.000000, 0.000000
0.000000, 0.000000, 0.000000, 0.000000
0.000000, 0.000000, 0.998049, 1.9866
0.000000, 0.000000, 0.000000, 0.000000
0.000000, 0.000000, 0.000000, 0.000000
0.000000, 0.000000, 0.000000, 0.000000
0.000000, 0.000000, 0.000000, 0.000000
0.000000, 0.000000, 0.000000, 0.000000
0.000000, 0.000000, 0.000000, 2.00185
0.000000, 0.000000, 0.000000, 1.03777
0.000000, 0.000000, 0.000000, 0.000000
0.000000, 0.000000, 0.000000, 0.000000
0.000000, 0.000000, 0.000000, 0.000000
0.000000, 1.00015, 0.000000, 0.000000
0.994689, 0.993514, 0.000000, 0.000000
0.000000, 0.000000, 0.000000, 0.000000
0.000000, 0.989299, 0.000000, 0.998874
0.000000, 0.000000, 0.000000, 0.000000
0.000000, 0.000000, 0.000000, 0.000000
1.03153, 0.000000, 0.998603, 0.000000
0.000000, 1.01787, 0.000000, 0.981818
0.994251, 0.000000, 0.000000, 0.000000
0.000000, 0.000000, 0.988085, 1.00707
0.000000, 2.01539, 2.00219, 0.000000
1.01765, 0.000000, 0.983593, 0.000000
0.000000, 0.000000, 5.9274, 1.00193
1.00599, 4.0251, 0.979151, 3.96719
0.000000, 2.99524, 4.00587, 4.02455
2.97034, 5.94876, 2.02401, 4.98911
7.9796, 5.0107, 9.98361, 10.9198
5.99102, 10.9481, 11.9082, 11.0419
59.6287, 61.7562, 65.7163, 75.7538
418.514, 204.424, 111.659, 44.0109
9.94728, 4.9937, 10.9248, 7.00227
4.00525, 1.9885, 5.96825, 5.96335
0.000000, 3.99362, 0.000000, 3.96375
1.98722, 2.96891, 2.96552, 2.0378
1.03092, 2.93877, 1.9785, 1.99084
2.00404, 2.01892, 0.985206, 0.000000
1.99192, 1.0079, 0.000000, 0.981991
0.995516, 1.97338, 0.000000, 0.000000
0.000000, 1.01364, 0.000000, 0.000000
1.00189, 1.0054, 0.988163, 0.000000
0.000000, 1.98109, 0.000000, 0.000000
0.000000, 0.000000, 0.97107, 0.000000
0.981435, 0.000000, 1.01865, 1.9601
0.000000, 0.990596, 0.000000, 0.000000
0.000000, 0.000000, 0.99162, 1.01493
0.000000, 0.996604, 0.000000, 0.000000
0.000000, 0.968199, 0.000000, 0.000000
0.000000, 0.000000, 1.00246, 0.000000
0.000000, 0.000000, 0.000000, 0.000000
0.000000, 1.98956, 0.000000, 1.00162
0.000000, 0.000000, 0.000000, 0.000000
0.996061, 1.99384, 2.0192, 0.979405
1.00169, 0.978767, 0.000000, 3.03458
0.998546, 0.000000, 0.000000, 0.000000
0.984184, 0.000000, 0.000000, 0.000000
0.990225, 0.994333, 0.000000, 0.972547
0.000000, 0.000000, 0.000000, 0.000000
0.000000, 0.000000, 0.000000, 0.000000
0.985111, 0.000000, 0.000000, 0.000000
0.000000, 2.97218, 0.000000, 0.000000
0.000000, 0.000000, 0.000000, 0.000000
0.000000, 1.00567, 0.000000, 0.000000
0.000000, 0.000000, 0.000000, 0.982243
0.000000, 0.000000, 0.000000, 1.01936
0.000000, 0.000000, 0.000000, 0.000000
0.000000, 0.000000, 0.000000, 0.000000
0.000000, 0.000000, 1.97311, 0.000000
0.000000, 0.000000, 0.000000, 0.000000
1.01923, 0.000000, 0.000000, 0.000000
0.000000, 0.000000, 0.999802, 0.000000
0.000000, 0.000000, 0.000000, 0.000000
0.000000, 0.988733, 0.000000, 0.994782
0.000000, 0.000000, 0.988009, 1.00187
0.000000, 0.000000, 2.00805, 0.997827
1.00982, 0.000000, 0.000000, 0.000000
0.000000, 0.000000, 0.000000, 1.00799
0.000000, 0.000000, 0.000000, 0.000000
0.000000, 0.000000, 0.000000, 0.000000
1.99225, 0.000000, 0.000000, 0.000000
0.000000, 1.00165, 0.000000, 0.000000
0.000000, 0.000000, 0.991785, 0.000000
0.000000, 0.000000, 0.000000, 0.000000
0.000000, 0.999618, 0.000000, 0.000000
0.000000, 0.000000, 0.000000, 0.000000
0.000000, 0.000000, 0.000000, 0.000000
0.000000, 0.000000, 0.000000, 0.000000
0.000000, 1.01936, 0.993303, 0.000000
0.000000, 0.000000, 0.000000, 0.000000
0.000000, 0.000000, 0.000000, 0.000000
0.000000, 0.000000, 0.000000, 0.000000
0.000000, 0.000000, 0.000000, 0.000000
0.000000, 0.000000, 0.000000, 0.000000
0.000000, 0.000000, 0.000000, 1.00007
0.000000, 0.000000, 0.992617, 0.000000
0.000000, 0.000000, 0.000000, 0.000000
0.000000, 0.000000, 0.000000, 0.000000
0.000000, 0.000000, 0.000000, 0.000000
0.000000, 0.000000, 0.000000, 0.984872
0.000000, 0.000000, 0.000000, 0.000000
0.000000, 0.000000, 0.972943, 0.000000
0.000000, 0.000000, 0.000000, 0.000000
0.000000, 0.000000, 0.991221, 0.994011
0.000000, 0.000000, 0.000000, 0.000000
0.000000, 0.000000, 0.000000, 0.000000
0.000000, 0.000000, 0.000000, 0.000000
0.000000, 0.000000, 0.000000, 0.000000
0.000000, 0.000000, 0.000000, 0.000000
0.000000, 1.00073, 0.000000, 0.000000
0.000000, 0.000000, 0.000000, 0.992319
0.000000, 0.000000, 0.000000, 0.000000
0.000000, 0.000000, 0.000000, 0.000000
0.000000, 0.000000, 0.000000, 0.000000
0.000000, 0.000000, 0.000000, 0.000000
0.000000, 0.000000, 0.000000, 0.000000
0.000000, 0.000000, 0.000000, 0.000000
0.000000, 0.000000, 0.000000, 0.000000
0.000000, 0.000000, 0.000000, 0.000000
0.000000, 0.000000, 0.000000, 0.000000
0.000000, 0.000000, 0.000000, 0.000000
0.000000, 0.000000, 0.982887, 0.000000
0.995995, 0.000000, 0.989869, 0.000000
0.000000, 0.000000, 0.000000, 0.000000
0.000000, 0.982377, 0.000000, 0.000000
0.000000, 0.000000, 0.000000, 0.000000
0.000000, 0.000000, 0.000000, 0.000000
0.995995, 1.00538, 0.000000, 0.000000
0.000000, 0.000000, 0.000000, 0.000000
0.981991, 0.000000, 0.991793, 1.97431
0.000000, 0.000000, 0.000000, 0.000000
0.000000, 0.000000, 0.98537, 0.000000
0.000000, 0.000000, 0.000000, 0.000000
0.000000, 0.989299, 0.000000, 0.983691
0.000000, 0.000000, 0.000000, 0.000000
0.000000, 0.000000, 1.00595, 0.000000
0.000000, 0.000000, 0.000000, 0.000000
0.986, 1.98115, 0.997827, 0.000000
0.975575, 0.000000, 1.98799, 0.000000
0.994152, 0.000000, 0.995844, 0.000000
0.000000, 0.994152, 2.96069, 0.990101
0.970123, 0.000000, 0.000000, 0.000000
0.000000, 0.000000, 0.000000, 0.000000
0.000000, 0.000000, 0.000000, 0.998874
0.000000, 0.000000, 0.000000, 0.980693
0.000000, 0.968574, 0.983593, 1.01176
0.000000, 2.99767, 0.995216, 0.98937
0.995864, 0.987345, 0.984784, 0.000000
3.00439, 1.02824, 4.017, 2.02554
0.965791, 2.98152, 1.99283, 0.982542
4.01765, 2.99498, 0.983989, 4.00882
1.98336, 3.93541, 7.99779, 4.98552
3.95042, 5.98406, 4.96889, 2.03425
15.9917, 15.8734, 13.9319, 14.9892
5797.99, 3472.01, 2091.81, 1264.16
13.1573, 5.94451, 4.96858, 9.852
2.00451, 3.97345, 3.98616, 5.99512
3.00796, 5.98789, 1.97204, 1.00914
0.000000, 3.95368, 1.00858, 4.98108
3.00772, 2.98074, 0.000000, 3.02306
2.99542, 2.00126, 0.969094, 3.00185
0.995516, 3.95054, 0.996983, 0.985361
0.000000, 3.9871, 1.98126, 3.01382
0.968574, 1.95299, 0.977736, 0.000000
0.000000, 0.000000, 1.98215, 1.99284
1.9961, 0.000000, 0.000000, 1.00725
0.000000, 0.000000, 2.99794, 0.000000
1.99272, 0.000000, 0.000000, 1.01009
0.992146, 2.02534, 1.01065, 0.000000
1.0284, 0.989461, 0.999482, 0.000000
0.000000, 0.000000, 1.03269, 0.000000
0.000000, 0.000000, 0.000000, 0.980244
0.000000, 0.998308, 0.000000, 0.000000
1.02963, 0.000000, 0.000000, 0.000000
1.00596, 0.000000, 0.994135, 0.000000
1.04108, 0.996004, 0.000000, 0.000000
0.000000, 0.000000, 0.994251, 0.000000
0.000000, 0.000000, 0.000000, 0.000000
0.000000, 1.3299, 0.000000, 0.000000
0.000000, 0.000000, 0.000000, 0.000000
0.000000, 0.000000, 0.000000, 0.000000
0.000000, 1.01052, 2.01232, 1.01545
0.000000, 1.00187, 0.973593, 0.000000
0.000000, 0.000000, 0.000000, 0.000000
0.000000, 0.000000, 0.000000, 0.000000
1.00776, 0.000000, 0.000000, 0.000000
0.996102, 0.000000, 0.000000, 0.000000
0.000000, 0.000000, 0.000000, 0.000000
0.000000, 0.000000, 0.000000, 0.000000
0.000000, 0.000000, 2.94068, 0.000000
0.000000, 0.993812, 0.000000, 0.000000
0.000000, 0.000000, 1.01014, 0.000000
0.000000, 0.000000, 0.000000, 0.000000
0.000000, 0.971294, 0.000000, 1.99954
1.00387, 0.000000, 0.000000, 0.989742
0.982681, 0.000000, 0.000000, 0.973452
0.998924, 0.000000, 0.000000, 0.000000
0.000000, 0.000000, 0.000000, 0.000000
0.000000, 0.000000, 0.000000, 0.000000
0.000000, 0.000000, 0.000000, 0.000000
0.000000, 0.000000, 1.00073, 0.000000
0.000000, 0.000000, 0.000000, 0.000000
0.000000, 0.000000, 0.000000, 0.992874
0.000000, 0.000000, 0.992561, 0.980006
0.000000, 0.997709, 1.99212, 0.000000
0.000000, 0.000000, 0.000000, 0.000000
0.000000, 0.000000, 0.000000, 1.00517
0.000000, 0.000000, 0.000000, 0.000000
0.000000, 1.98202, 0.000000, 0.000000
0.000000, 0.995864, 0.000000, 0.986465
1.00539, 0.000000, 0.000000, 0.976638
0.984319, 0.000000, 0.000000, 1.00886
0.000000, 0.000000, 0.000000, 0.000000
0.000000, 1.00109, 0.000000, 0.000000
0.000000, 0.000000, 0.000000, 0.000000
0.000000, 0.000000, 0.000000, 1.98647
0.000000, 0.998965, 0.000000, 0.982681
1.98822, 0.000000, 0.000000, 0.000000
0.994251, 0.000000, 0.000000, 0.977835
1.02638, 0.000000, 0.000000, 0.000000
0.000000, 0.000000, 0.000000, 0.000000
1.01345, 0.000000, 0.000000, 0.000000
0.994152, 0.000000, 0.000000, 0.98897
0.000000, 0.991445, 0.000000, 0.000000
0.000000, 0.000000, 0.000000, 0.000000
0.000000, 0.000000, 0.000000, 0.000000
0.000000, 0.997875, 0.000000, 0.000000
1.00539, 0.000000, 1.00168, 1.99956
0.000000, 3.00967, 0.000000, 0.994354
0.000000, 0.987896, 0.000000, 0.98897
0.000000, 0.000000, 0.000000, 0.000000
0.000000, 0.000000, 0.000000, 0.000000
0.982887, 0.000000, 0.000000, 0.000000
0.000000, 0.000000, 0.000000, 0.000000
0.000000, 0.000000, 0.000000, 0.000000
0.000000, 0.000000, 0.000000, 0.000000
0.977629, 0.984412, 0.000000, 0.000000
0.000000, 0.982225, 1.01557, 0.967456
0.000000, 0.998468, 0.000000, 0.000000
0.000000
*END

*EOF