File: CuClQDs/XRD&XRF/20190611/A59_2thetaomega_2θ_ω.asc
*TYPE		=  Raw
*CLASS		=  ASCII CLASS
*SAMPLE		=  A59
*COMMENT	=
*FNAME		=  A59_2thetaomega_2θ_ω.asc
*DATE		=  11-Jun-19 11:40

*GROUP_COUNT	=  1
*GONIO		=  SmartLab(In-plane), 0.000000
*ATTACHMENT	=  χφZクレードル
*ASC		=  0, 0, 0.000000, 0.000000
*I_MONOCHRO	=  Ge(220)x2, 0.000000
*FILTER		=  None
*C_MONOCHRO	=  No_unit, 0.000000
*SLIT_NAME	=  0, 入射スリット
*SLIT_NAME	=  1, 受光スリット1
*SLIT_NAME	=  2, 受光スリット2
*COUNTER	=  HyPix 3000(H), 0
*POS_FORMAT	=  0
*SCAN_AXIS	=  2Theta/Omega
*MEAS_MODE	=  Continuous Scanning
*TARGET		=  29
*XRAY_CHAR	=  K-ALPHA1
*WAVE_LENGTH1	=  1.54059
*WAVE_LENGTH2	=  1.54441
*THICKNESS	=  0, 0.000000
*MU		=  0, 0.000000
*SCAN_MODE	=  2Theta/Omega
*SPEED_DIM	=  sec./step
*XUNIT		=  deg.
*YUNIT		=  counts
*SCALE_MODE	=  1
*REP_COUNT	=  0
*SE_COUNT	=  0
*STD_MATERIAL	=  Unknown, Unknown, 0.000000, 0.000000, 0.000000, 0.000000, 0.000000, 0.000000
*LATT_CONS	=  0, Unknown, Unknown, 0.000000, 0.000000, 0.000000, 0.000000, 0.000000, 0.000000
*SEC_COUNT	=  1
*TSPEC_SIZE	=  0
*EXTRA_SIZE	=  0
*MEMO		=

*BEGIN
*GROUP		=  0
*START		=  20
*STOP		=  90
*STEP		=  0.01
*OFFSET		=  0.000000
*SPEED		=  0.116312
*SLIT_SPEC	=  0, 0.500mm, 0.5, 0.000000
*SLIT_SPEC	=  1, 0.500mm, 0.5, 0.000000
*SLIT_SPEC	=  2, 0.500mm, 0.5, 0.000000
*KV		=  45
*MA		=  200
*LOW		=  0.000000
*HIGH		=  0.000000
*CTEMPER	=  0, 0.000000
*CTEMPER	=  1, 0.000000
*CTEMPER	=  2, 0.000000
*PAREX		=  0, 0.000000
*PAREX		=  1, 0.000000
*PAREX		=  2, 0.000000
*PAREX		=  3, 0.000000
*PAREX		=  4, 0.000000
*PAREX		=  5, 0.000000
*PAREX		=  6, 0.000000
*PAREX		=  7, 0.000000
*PAREX		=  8, 0.000000
*PAREX		=  9, 0.000000
*PAREX		=  10, 0.000000
*PAREX		=  11, 0.000000
*PAREX		=  12, 0.000000
*PAREX		=  13, 0.000000
*PAREX		=  14, 0.000000
*PAREX		=  15, 0.000000
*FULL_SCALE	=  779764
*INDEX		=  0, 0, 0
*COUNT		=  7001
0.984948, 2.9704, 2.00004, 2.97201
1.00109, 1.97976, 0.000000, 1.0166
0.999482, 2.01099, 1.00502, 2.01148
0.988969, 1.95803, 1.99056, 0.975575
1.97754, 0.96292, 0.96292, 3.97924
3.01349, 0.000000, 0.000000, 2.00476
2.9685, 0.000000, 0.000000, 1.99737
1.98572, 2.00115, 0.993219, 0.983989
0.000000, 2.01969, 0.000000, 0.970123
0.979151, 2.9312, 1.98827, 0.988275
2.98666, 2.01316, 1.00658, 2.9714
0.000000, 2.98224, 2.00975, 2.03417
0.990516, 2.00023, 2.97831, 0.000000
1.99745, 3.00357, 0.988733, 0.000000
1.00531, 0.000000, 2.96153, 1.98264
0.000000, 0.994152, 1.99576, 0.995434
3.94269, 1.99462, 1.99065, 0.982542
1.99175, 0.000000, 3.02411, 0.960941
0.967456, 0.993219, 1.99509, 4.01647
0.998446, 2.0114, 0.000000, 0.000000
0.000000, 2.99793, 1.00199, 0.000000
0.000000, 1.01495, 0.952999, 1.9939
0.000000, 1.00998, 0.982377, 2.12894
0.000000, 2.01198, 1.98523, 1.96527
1.02218, 0.000000, 1.98863, 2.95943
3.03102, 1.01557, 2.00458, 0.98897
2.98232, 0.000000, 4.969, 1.00486
0.989854, 3.00171, 1.99858, 0.996774
1.99574, 2.02375, 1.00476, 2.97865
2.99623, 0.977629, 3.9361, 2.00202
4.01893, 0.987896, 2.93612, 0.000000
4.98059, 2.01229, 1.01098, 1.99421
2.96749, 0.988022, 0.000000, 3.00865
3.9517, 0.000000, 1.97053, 2.97393
3.92908, 1.003, 1.99214, 0.991793
2.97589, 1.99991, 2.96627, 2.99468
1.97752, 1.95223, 3.95711, 0.000000
1.00602, 7.9513, 4.02126, 5.0026
4.8986, 7.24175, 9.0269, 3.97328
16.0165, 12.8619, 14.0679, 20.2729
27.7579, 33.7876, 34.0563, 28.1384
73.6901, 87.664, 103.62, 113.841
41842.2, 31899, 22476.2, 15739.2
31.0195, 20.1929, 20.8892, 22.1633
5.95526, 7.01508, 7.95571, 7.03745
8.94985, 7.99057, 4.96446, 4.99232
4.96548, 1.0085, 3.97227, 1.98533
3.95199, 3.93234, 5.94708, 3.96088
0.000000, 5.99749, 1.96128, 3.98317
2.98143, 0.000000, 2.00899, 6.94892
4.03496, 0.993326, 0.986473, 1.03092
2.02154, 3.0066, 0.998874, 0.967456
0.000000, 3.01922, 1.95859, 2.00706
1.98825, 0.000000, 5.01211, 1.01277
0.000000, 4.03729, 1.99284, 1.95106
0.000000, 2.98456, 1.00538, 0.983691
1.99676, 1.99765, 3.97612, 1.99386
2.00555, 3.9474, 1.00139, 0.000000
0.000000, 0.000000, 1.00139, 0.000000
3.01075, 3.01926, 1.98712, 2.97867
1.97687, 1.00486, 1.96309, 4.00505
1.00811, 3.02118, 2.97664, 3.0014
2.95825, 0.000000, 0.000000, 1.0284
5.98324, 2.98661, 3.94133, 0.977624
1.99094, 1.01901, 1.9882, 2.95859
1.99581, 2.96724, 1.98145, 1.98457
3.00587, 1.98993, 2.02104, 1.03082
0.992964, 2.00679, 0.996604, 0.985519
2.99999, 0.000000, 0.000000, 1.95939
0.000000, 1.99275, 0.985111, 0.952999
1.99664, 0.978951, 1.96937, 1.98781
1.96514, 0.000000, 0.000000, 0.000000
0.000000, 2.98952, 1.98153, 4.91642
2.96536, 0.000000, 1.00146, 1.98002
0.986584, 2.96895, 3.94438, 1.97384
0.000000, 0.000000, 1.9919, 5.96733
0.981196, 0.999002, 0.000000, 1.97653
0.989299, 1.97387, 3.01917, 1.02559
1.00024, 0.000000, 0.977426, 0.000000
0.000000, 0.000000, 3.02487, 1.97491
1.95402, 0.000000, 2.89345, 0.991969
0.000000, 0.994152, 0.000000, 5.94722
2.9772, 1.0032, 1.9741, 1.00084
0.000000, 0.993789, 2.00585, 4.98919
0.989021, 1.98309, 0.983593, 0.952999
1.97355, 0.000000, 0.987768, 0.000000
4.02636, 1.99639, 5.00181, 3.02621
10.994, 9.99307, 16.1971, 5.95645
3.9077, 1.99298, 2.96145, 2.99848
1.99126, 1.99906, 6.01163, 2.02724
0.000000, 0.968574, 2.99287, 0.000000
0.992366, 2.99149, 0.000000, 5.03853
1.98552, 4.97487, 3.00185, 2.99772
0.000000, 0.983508, 1.98424, 0.990026
0.000000, 5.96392, 2.00591, 1.9818
2.00329, 2.99956, 1.97197, 0.984665
0.990516, 2.00092, 0.000000, 1.94474
1.97758, 2.00664, 0.978951, 3.99804
0.985137, 1.98968, 2.97191, 1.00073
3.98007, 1.03064, 1.97956, 2.99957
2.98811, 1.99593, 0.989522, 2.00728
5.95469, 1.97699, 0.988275, 2.9968
0.999618, 4.00322, 0.975459, 1.01009
0.000000, 1.95382, 2.00222, 0.987035
2.01198, 0.000000, 0.981773, 1.03093
0.990065, 0.989299, 1.00146, 1.97185
1.01996, 1.97852, 4.96261, 3.94613
3.01477, 0.977629, 1.94612, 3.00803
0.000000, 0.000000, 2.99553, 0.995843
0.988589, 1.98194, 2.94642, 5.00223
0.976638, 2.00536, 3.01358, 3.92022
0.972822, 1.94952, 1.9714, 1.99479
3.95973, 2.00871, 1.99395, 1.05069
1.01147, 0.965385, 1.0005, 6.01124
0.998965, 0.000000, 1.00436, 2.97242
1.00246, 1.00217, 0.000000, 0.986473
0.997665, 1.97944, 1.98147, 1.99525
1.02077, 1.98543, 0.000000, 2.02528
0.000000, 0.986465, 4.98706, 0.000000
1.00259, 2.02031, 4.98228, 2.99365
4.99643, 0.000000, 2.97665, 0.997652
1.96299, 3.99045, 3.95397, 1.99933
1.00015, 1.97289, 0.000000, 0.000000
4.0147, 1.98947, 1.97875, 3.99137
2.02151, 0.987035, 0.969094, 1.9907
0.000000, 0.992222, 1.97875, 0.000000
3.99009, 5.0154, 1.98891, 0.996403
1.99223, 1.97096, 1.01147, 3.02101
4.00958, 1.98473, 3.02051, 3.01742
0.978243, 0.000000, 1.98147, 1.00505
4.94522, 2.97009, 0.000000, 4.01871
5.1202, 1.98545, 2.03652, 0.993303
1.9759, 2.95762, 0.952999, 1.99103
0.000000, 2.96882, 4.02277, 1.99821
1.03082, 2.00273, 2.017, 2.966
2.99746, 1.00806, 1.00022, 0.000000
2.04784, 3.03354, 0.000000, 4.99891
0.000000, 3.98094, 2.98123, 1.98223
0.984412, 1.00278, 0.000000, 4.97544
4.00652, 1.97963, 2.00212, 2.95567
0.000000, 0.973593, 3.01522, 2.98639
2.00523, 0.997652, 0.992617, 2.96765
1.00517, 2.98483, 3.97199, 1.00517
2.98956, 1.95728, 2.0089, 2.02494
1.0166, 0.990386, 3.9615, 2.97279
2.98094, 0.982542, 0.952999, 0.980527
1.04701, 5.93995, 3.00651, 0.989869
2.0119, 2.00571, 4.99553, 2.98784
0.994792, 1.9826, 3.99801, 2.98446
1.98396, 5.00763, 5.06466, 2.97942
3.96046, 2.01195, 0.993219, 2.0053
0.982377, 5.96931, 3.97836, 2.00715
1.98229, 6.02916, 0.987345, 1.99992
0.988969, 0.000000, 2.98962, 2.99777
3.96148, 0.989105, 2.94422, 4.93274
5.9885, 5.94413, 0.999482, 1.01349
3.00149, 1.00922, 1.99749, 2.99684
1.00476, 6.98856, 1.95826, 4.00731
2.93086, 0.000000, 0.987035, 3.96287
7.95036, 5.01232, 2.95893, 2.99056
3.05238, 5.9819, 4.95757, 4.98318
7.98285, 1.98251, 8.9685, 3.01807
11.9411, 14.1148, 11.9059, 14.8923
17.8034, 22.0731, 21.9561, 23.8444
46.9446, 33.0887, 47.7751, 50.9765
2110.32, 2598.81, 4683.35, 7705.04
32.0981, 26.963, 33.8381, 30.1752
14.1728, 15.9514, 10.9633, 19.0595
2.99453, 8.94716, 8.23159, 4.02217
7.92549, 9.03933, 6.95957, 5.96854
9.98353, 8.08511, 5.98723, 5.12546
3.93975, 6.01361, 6.01337, 4.98844
1.9828, 6.97137, 3.94699, 3.97814
2.01163, 4.94152, 3.92266, 2.96261
3.98385, 3.05227, 3.92027, 1.94884
3.96487, 2.96054, 4.95886, 3.00531
0.000000, 0.000000, 3.9216, 4.95748
3.97839, 2.99858, 2.97078, 0.000000
1.99531, 1.99902, 0.980244, 0.995699
4.95736, 0.988787, 1.99552, 1.98508
2.98786, 3.97334, 0.980385, 3.00173
2.01169, 0.000000, 3.92524, 0.980679
1.96957, 2.98545, 3.01969, 4.03178
2.93765, 1.95974, 3.95641, 0.981625
0.000000, 1.00076, 1.98141, 1.96476
0.97156, 2.97297, 1.99995, 0.978306
4.96949, 3.01005, 1.99594, 3.01554
2.95865, 3.95549, 0.97107, 1.98108
0.988022, 0.983508, 4.07399, 2.97271
1.01777, 2.95506, 1.96211, 1.99887
0.970123, 3.96318, 0.986584, 1.97754
1.00207, 1.97988, 0.989869, 3.97005
2.94918, 0.980006, 1.97253, 0.000000
2.99702, 3.98887, 4.00136, 1.991
1.99246, 1.98702, 1.95189, 2.97078
0.982569, 1.95301, 2.98874, 1.00208
3.98165, 2.95569, 1.99556, 2.98251
1.00165, 1.97127, 5.00065, 1.01996
1.96069, 1.01052, 3.95173, 0.987345
0.000000, 5.94792, 0.96292, 3.00902
1.97589, 0.000000, 2.97041, 0.998276
1.98403, 0.000000, 1.99366, 1.99318
4.98261, 1.99856, 2.99954, 5.94462
1.99125, 2.00215, 1.98791, 1.02202
2.93475, 6.9815, 4.9821, 3.04287
2.04215, 0.988942, 0.987035, 0.997172
1.98647, 0.971, 0.999261, 1.02859
0.991969, 2.04914, 1.95845, 1.00085
0.96292, 1.97232, 0.981773, 2.95802
1.02767, 3.06604, 1.96269, 2.00361
3.01294, 2.97494, 0.995516, 0.983989
1.00139, 4.02321, 1.96949, 3.98443
2.99949, 3.00118, 2.95503, 0.974622
1.00005, 2.97179, 1.99094, 2.98615
2.96889, 0.000000, 0.985608, 2.01883
1.98824, 5.92621, 0.000000, 3.00046
2.0061, 1.97576, 1.95737, 0.000000
2.01084, 0.982569, 4.00591, 5.01115
0.990244, 0.952999, 3.96583, 2.95898
2.9985, 4.94538, 3.02375, 3.00434
1.00596, 2.97002, 1.99541, 3.9789
2.99076, 5.96718, 5.97737, 2.04585
0.991819, 1.02077, 0.000000, 0.968199
1.98804, 2.99583, 1.99964, 0.968199
4.01702, 0.997665, 0.000000, 2.99845
0.971, 1.99879, 0.992417, 1.99864
4.99702, 3.01977, 1.99647, 4.00214
3.89393, 1.95338, 1.97678, 0.991993
2.98752, 4.93045, 3.02296, 0.000000
0.996913, 5.9775, 0.000000, 8.99007
1.00122, 0.981639, 0.000000, 1.00024
3.98037, 4.97884, 0.98633, 1.94535
3.01759, 0.986126, 0.98995, 1.96136
1.00596, 4.91922, 2.00109, 4.01077
0.000000, 2.96699, 2.00484, 0.999482
1.9802, 1.00449, 3.97866, 0.982569
1.00436, 0.998446, 1.00395, 3.97792
2.05321, 0.000000, 2.97724, 1.00377
1.9971, 1.00207, 2.96109, 3.05721
0.000000, 2.98544, 2.95823, 0.96292
5.03968, 1.98746, 0.999809, 1.97278
4.00399, 1.98896, 2.99201, 1.98572
1.97311, 3.97235, 0.000000, 2.96851
2.9626, 4.93392, 2.00396, 2.99347
0.991969, 1.98482, 1.01013, 0.993959
1.97502, 1.94096, 1.96973, 0.000000
3.02304, 0.000000, 1.97977, 1.00005
1.98451, 1.96137, 1.96294, 2.96653
0.986179, 0.992222, 1.00455, 3.02744
0.000000, 3.97315, 3.98332, 0.983888
2.99307
*END

*EOF