File: CuClQDs/XRD&XRF/20190613/A56_2thetaomega_2θ_ω.asc
*TYPE		=  Raw
*CLASS		=  ASCII CLASS
*SAMPLE		=  A56
*COMMENT	=
*FNAME		=  A56_2thetaomega_2θ_ω.asc
*DATE		=  13-Jun-19 17:02

*GROUP_COUNT	=  1
*GONIO		=  SmartLab(In-plane), 0.000000
*ATTACHMENT	=  χφZクレードル
*ASC		=  0, 0, 0.000000, 0.000000
*I_MONOCHRO	=  Ge(220)x2, 0.000000
*FILTER		=  None
*C_MONOCHRO	=  No_unit, 0.000000
*SLIT_NAME	=  0, 入射スリット
*SLIT_NAME	=  1, 受光スリット1
*SLIT_NAME	=  2, 受光スリット2
*COUNTER	=  HyPix 3000(H), 0
*POS_FORMAT	=  0
*SCAN_AXIS	=  2Theta/Omega
*MEAS_MODE	=  Continuous Scanning
*TARGET		=  29
*XRAY_CHAR	=  K-ALPHA1
*WAVE_LENGTH1	=  1.54059
*WAVE_LENGTH2	=  1.54441
*THICKNESS	=  0, 0.000000
*MU		=  0, 0.000000
*SCAN_MODE	=  2Theta/Omega
*SPEED_DIM	=  sec./step
*XUNIT		=  deg.
*YUNIT		=  counts
*SCALE_MODE	=  1
*REP_COUNT	=  0
*SE_COUNT	=  0
*STD_MATERIAL	=  Unknown, Unknown, 0.000000, 0.000000, 0.000000, 0.000000, 0.000000, 0.000000
*LATT_CONS	=  0, Unknown, Unknown, 0.000000, 0.000000, 0.000000, 0.000000, 0.000000, 0.000000
*SEC_COUNT	=  1
*TSPEC_SIZE	=  0
*EXTRA_SIZE	=  0
*MEMO		=

*BEGIN
*GROUP		=  0
*START		=  20
*STOP		=  90
*STEP		=  0.01
*OFFSET		=  0.000000
*SPEED		=  0.196312
*SLIT_SPEC	=  0, 0.500mm, 0.5, 0.000000
*SLIT_SPEC	=  1, 0.500mm, 0.5, 0.000000
*SLIT_SPEC	=  2, 0.500mm, 0.5, 0.000000
*KV		=  45
*MA		=  200
*LOW		=  0.000000
*HIGH		=  0.000000
*CTEMPER	=  0, 0.000000
*CTEMPER	=  1, 0.000000
*CTEMPER	=  2, 0.000000
*PAREX		=  0, 0.000000
*PAREX		=  1, 0.000000
*PAREX		=  2, 0.000000
*PAREX		=  3, 0.000000
*PAREX		=  4, 0.000000
*PAREX		=  5, 0.000000
*PAREX		=  6, 0.000000
*PAREX		=  7, 0.000000
*PAREX		=  8, 0.000000
*PAREX		=  9, 0.000000
*PAREX		=  10, 0.000000
*PAREX		=  11, 0.000000
*PAREX		=  12, 0.000000
*PAREX		=  13, 0.000000
*PAREX		=  14, 0.000000
*PAREX		=  15, 0.000000
*FULL_SCALE	=  177347
*INDEX		=  0, 0, 0
*COUNT		=  7001
0.967456, 0.000000, 0.992221, 0.97201
0.985255, 0.000000, 0.953149, 0.000000
0.000000, 0.000000, 1.97174, 0.000000
2.99183, 0.000000, 0.000000, 3.01651
0.000000, 0.000000, 3.95875, 1.97382
0.000000, 1.01147, 0.998964, 3.99161
0.999617, 1.98787, 0.000000, 2.0048
1.97967, 0.997859, 0.000000, 0.000000
0.000000, 2.00541, 1.97539, 3.02081
4.01704, 1.00377, 0.000000, 0.98902
0.987011, 1.9986, 0.979388, 0.000000
2.00848, 3.00132, 0.000000, 2.01359
0.999808, 1.9722, 0.975574, 0.000000
1.01936, 1.98347, 1.01689, 0.996436
0.000000, 0.000000, 0.000000, 0.983988
0.000000, 1.02767, 2.98256, 0.000000
0.984664, 0.975458, 0.992874, 1.97555
0.000000, 0.953149, 2.99016, 1.00395
0.000000, 0.000000, 1.99431, 2.006
3.01341, 0.000000, 1.98199, 1.96324
0.977428, 3.93259, 3.99706, 0.952998
0.958476, 3.00632, 1.0027, 3.01073
3.95437, 0.997965, 1.96379, 0.987511
3.96959, 0.000000, 5.96301, 3.99999
0.988021, 3.95792, 0.000000, 0.000000
3.97903, 0.997802, 1.00886, 0.000000
0.000000, 0.993788, 4.99864, 1.00199
0.000000, 1.00185, 1.01345, 3.95659
0.986181, 0.992416, 1.97636, 3.89263
2.01149, 0.990101, 1.0085, 2.96402
1.98022, 0.995634, 1.00193, 0.995587
0.996231, 2.98803, 3.01919, 1.01709
2.0052, 3.93718, 2.0221, 2.96804
3.99041, 4.00682, 3.95054, 3.96831
3.14678, 0.962919, 2.94678, 3.96082
2.96872, 4.00561, 0.000000, 1.99737
2.97226, 2.00679, 2.9697, 4.98616
5.00881, 3.95873, 2.96258, 7.08898
8.9675, 8.95366, 4.9747, 4.01235
12.2969, 18.034, 12.9385, 8.98154
12.9191, 17.9465, 14.1228, 17.9202
37.0946, 45.893, 36.8146, 40.7823
6245.44, 11494.5, 22001.8, 24741.7
34.9646, 27.1957, 25.9073, 29.0488
10.1642, 12.9724, 11.9285, 13.0037
9.9344, 9.20811, 8.9474, 9.88471
2.96903, 6.00138, 5.02407, 4.94392
3.99199, 9.92634, 4.12688, 4.01872
3.95487, 4.97688, 4.94695, 3.00487
4.01468, 2.9659, 3.0227, 0.987078
3.05218, 5.00562, 0.000000, 1.9899
3.0315, 1.97294, 9.09418, 3.98484
0.000000, 0.989299, 1.9987, 1.98604
0.979394, 0.991858, 2.94981, 2.00797
0.000000, 2.97651, 2.99638, 0.000000
1.9878, 2.98513, 0.000000, 3.96278
3.01341, 1.00379, 2.97552, 0.000000
0.989299, 1.00368, 2.00129, 1.97656
3.00584, 2.96268, 0.000000, 2.026
2.01677, 0.000000, 3.98576, 4.91459
0.000000, 1.98539, 1.00024, 0.000000
3.91092, 2.97822, 2.02983, 1.00024
0.000000, 1.99379, 1.97, 0.995842
2.9815, 1.00395, 0.000000, 2.97977
1.99734, 2.004, 2.00327, 1.03063
4.98868, 5.93969, 1.9842, 1.98902
0.999736, 0.000000, 1.96536, 1.96016
2.98868, 2.02508, 1.93509, 0.000000
2.99389, 2.99303, 1.01777, 3.01255
2.00671, 2.99197, 0.985895, 1.99246
3.01136, 3.99079, 3.95671, 1.00278
0.997334, 0.000000, 0.000000, 2.99031
2.01957, 1.01495, 0.986881, 0.000000
1.98677, 5.93172, 2.00091, 3.9786
2.93261, 1.99331, 0.96579, 0.000000
0.000000, 2.0121, 0.000000, 1.97437
0.985255, 2.96111, 2.97868, 0.000000
2.04627, 1.96873, 0.000000, 2.99731
2.96099, 2.97643, 0.000000, 1.99204
1.01373, 0.000000, 4.94149, 1.96749
2.02642, 4.00381, 0.983409, 0.998964
0.974621, 0.992145, 2.95559, 0.986702
2.96783, 1.00195, 6.92711, 1.15151
1.00596, 0.973592, 2.95041, 0.973592
0.99926, 2.01092, 0.977428, 4.98275
4.94045, 0.000000, 2.014, 3.02529
1.00583, 0.989296, 2.03264, 1.99134
8.9807, 6.93117, 6.99448, 2.95126
1.00109, 5.98626, 0.987519, 0.000000
2.99868, 4.00243, 0.997708, 2.97769
3.96084, 1.99089, 3.98988, 0.000000
3.96517, 0.000000, 3.00827, 0.979421
0.000000, 0.000000, 1.98809, 2.95787
1.00146, 3.97468, 1.99993, 0.000000
4.00297, 0.000000, 3.96023, 3.93464
0.994079, 0.000000, 1.98218, 1.0092
0.991792, 1.0199, 1.99573, 0.985326
1.00186, 0.000000, 3.01719, 0.000000
0.970122, 0.000000, 2.00345, 1.96894
1.0237, 2.00467, 1.01277, 3.02945
0.971069, 0.999736, 0.000000, 2.99282
3.99953, 5.94491, 2.99072, 2.98689
2.97254, 3.95989, 2.97139, 1.01774
0.000000, 1.99299, 0.986062, 2.00166
2.95192, 0.990101, 0.98511, 0.996693
1.00594, 0.994134, 0.000000, 0.98946
1.96894, 3.08916, 2.02373, 2.98514
2.98492, 1.01273, 1.01361, 0.000000
2.99414, 1.00193, 2.01972, 0.998752
0.986472, 1.98675, 2.00541, 2.01619
1.01487, 2.97515, 2.97492, 0.000000
2.9846, 3.9264, 1.99273, 0.986874
2.99944, 2.99901, 1.00076, 0.983507
2.01605, 1.99513, 0.982887, 0.000000
1.97433, 2.9571, 1.0237, 0.982541
3.98808, 3.98787, 3.00054, 2.00362
2.04446, 0.000000, 0.000000, 2.99088
1.01009, 1.98283, 3.02198, 2.01703
1.98052, 0.995524, 3.00494, 2.98514
1.96942, 3.96929, 1.00085, 0.984658
3.03892, 0.000000, 3.95288, 0.000000
1.98262, 0.998327, 1.97612, 1.01139
1.99617, 4.93339, 1.98504, 1.00146
0.000000, 1.99002, 0.978305, 0.000000
0.000000, 0.000000, 2.03756, 1.9993
1.00387, 3.93138, 0.993782, 0.984871
3.97552, 1.97643, 2.93694, 2.99688
0.000000, 5.14137, 1.98555, 0.000000
5.99647, 2.96494, 0.998445, 2.95988
2.99267, 1.97836, 1.00583, 2.00908
1.97226, 4.98606, 0.000000, 1.99025
0.997172, 0.993865, 3.0011, 0.999658
2.97912, 3.97624, 0.000000, 1.98206
0.000000, 2.99664, 1.97595, 2.99666
1.97918, 0.993811, 0.987034, 3.00599
0.97895, 1.97105, 2.96243, 0.000000
5.00987, 4.02812, 2.9844, 2.98278
0.996982, 1.00455, 1.96644, 1.01008
0.999001, 1.99987, 1.00073, 3.99504
2.99722, 0.986178, 0.000000, 3.95801
1.96878, 3.97054, 1.98146, 2.99866
3.99199, 2.96165, 1.00575, 3.05394
1.01009, 4.96321, 0.985318, 0.000000
0.99604, 2.97091, 2.02421, 4.93634
0.000000, 1.00539, 2.0126, 1.00195
1.99979, 1.98679, 1.02767, 1.9938
4.98959, 1.00917, 0.000000, 1.97986
4.00393, 1.95907, 4.03105, 0.979404
4.02416, 1.97954, 1.99601, 1.00193
2.99708, 1.00488, 2.98432, 1.99345
0.000000, 2.99398, 2.97274, 1.97631
0.993764, 2.96063, 3.96653, 2.01564
2.00824, 2.95648, 5.03121, 1.96766
3.99644, 1.97107, 1.97188, 1.01616
3.96795, 5.94514, 3.99687, 2.9729
3.00793, 0.986464, 1.97348, 4.98171
2.96203, 1.00716, 2.95835, 2.04456
1.97538, 3.93459, 2.93463, 0.992862
6.98454, 2.01826, 5.01533, 1.98929
8.03086, 6.04805, 0.999808, 7.96537
3.00081, 1.99678, 10.1435, 5.98219
4.0078, 3.01787, 5.91926, 4.00309
4.97723, 7.96651, 5.9438, 6.99797
11.9901, 9.97016, 16.0768, 16.9931
23.8302, 35.8179, 35.8617, 9.99654
840.489, 1214.52, 1481.07, 1789.46
15.0404, 20.1002, 24.0228, 19.8535
4.00645, 10.9587, 9.98346, 11.9056
8.96848, 10.024, 13.9032, 8.95649
2.97648, 6.90814, 7.95423, 7.91928
9.049, 11.2158, 3.99051, 9.12185
6.96714, 6.02325, 3.92165, 6.92342
6.95984, 4.96324, 3.02086, 2.98819
2.96849, 5.97888, 1.96957, 3.95657
1.98872, 6.9589, 3.97657, 2.98801
6.02677, 0.000000, 1.97523, 5.92329
0.000000, 1.01057, 4.98687, 1.97714
2.00526, 1.98253, 3.93484, 3.98577
2.98715, 2.00242, 5.97261, 3.97053
1.0002, 0.998276, 3.96411, 4.01538
2.03976, 1.99366, 2.00196, 3.99003
1.95854, 2.98772, 2.9966, 4.98609
0.000000, 1.02498, 6.00914, 3.0048
1.98336, 1.97676, 2.9951, 3.91753
3.99282, 1.98676, 3.95395, 2.97049
0.98536, 2.00654, 1.99793, 3.95697
1.98452, 4.00426, 1.00187, 2.96717
0.995215, 2.0066, 1.98683, 2.97499
2.97591, 0.000000, 3.03007, 0.997874
3.89688, 0.98511, 2.99693, 2.00289
2.00171, 1.99221, 0.000000, 3.99415
1.99096, 3.00755, 1.00531, 3.00433
3.02098, 2.96684, 2.95619, 2.016
1.95021, 2.98422, 1.99623, 1.97933
1.98201, 1.02077, 2.97313, 0.000000
0.000000, 4.00412, 0.000000, 0.994332
0.991942, 1.01147, 1.97591, 0.997859
4.00163, 7.94843, 1.96162, 4.93329
0.98369, 1.99632, 0.000000, 1.00236
1.98915, 2.97216, 1.95649, 3.94837
2.02199, 1.0152, 4.99521, 1.97991
5.01372, 2.96521, 1.01147, 2.99146
3.9715, 0.958476, 2.94105, 3.00292
1.94588, 0.989224, 1.95932, 1.0009
3.99485, 0.981625, 0.996603, 2.97862
0.989868, 4.96343, 0.000000, 2.00598
1.98886, 0.984318, 1.991, 3.00398
0.993303, 2.96912, 2.03717, 3.97819
2.0251, 1.00074, 5.92563, 1.98838
1.98225, 1.97804, 0.994134, 0.000000
2.00592, 1.95193, 0.000000, 0.000000
3.97921, 0.995516, 0.984658, 4.9576
0.000000, 0.993142, 1.99318, 2.0038
2.01612, 1.02936, 3.0226, 1.97241
1.96636, 1.97462, 1.98905, 1.97528
0.998752, 0.981942, 0.000000, 1.99462
1.99061, 0.979388, 1.97255, 0.995516
3.96007, 0.000000, 0.981195, 0.989402
1.00368, 1.02638, 2.9681, 1.02883
3.03259, 0.992874, 0.987745, 3.97417
0.000000, 2.98426, 2.97136, 1.00626
3.0143, 4.98706, 1.96765, 2.98566
4.97618, 2.97595, 2.01153, 0.993303
5.94445, 2.9678, 1.96745, 0.978305
0.000000, 1.98721, 2.01923, 3.97669
2.00943, 0.995984, 2.98307, 1.03375
3.93073, 0.999001, 0.9907, 3.98568
0.986126, 3.00184, 2.02793, 1.96761
0.974123, 4.00816, 0.977735, 0.984537
0.984861, 0.972822, 2.00206, 0.983545
2.00968, 1.93603, 0.974621, 0.983918
1.97305, 1.9795, 0.000000, 3.00047
2.00897, 2.95662, 2.05028, 3.14831
1.93058, 3.98309, 1.98533, 1.97066
2.0071, 4.97324, 2.99996, 0.000000
0.973592, 2.99019, 5.02798, 1.99289
6.00208, 2.99664, 0.000000, 1.9691
0.98511, 4.95629, 2.9925, 0.995433
3.96256, 1.00097, 0.980243, 0.000000
1.99226, 2.0134, 4.02326, 0.000000
3.00075, 0.995528, 1.98927, 3.96969
6.00809, 0.98982, 1.98741, 1.98362
0.994178, 0.000000, 0.996947, 2.01526
3.01366, 1.96229, 1.97616, 0.000000
4.05315, 2.99571, 0.991992, 4.03048
2.98051, 0.000000, 1.00139, 0.000000
2.98534, 3.00891, 0.000000, 1.0027
0.971961, 2.93058, 0.995346, 3.94127
0.984347, 0.980243, 0.994791, 2.99416
3.94027, 0.97895, 5.01926, 0.000000
2.94909
*END

*EOF