File: CuClQDs/XRD&XRF/20190613/A59_2thetaomega_2θ_ω.asc
*TYPE		=  Raw
*CLASS		=  ASCII CLASS
*SAMPLE		=  A59
*COMMENT	=
*FNAME		=  A59_2thetaomega_2θ_ω.asc
*DATE		=  13-Jun-19 16:08

*GROUP_COUNT	=  1
*GONIO		=  SmartLab(In-plane), 0.000000
*ATTACHMENT	=  χφZクレードル
*ASC		=  0, 0, 0.000000, 0.000000
*I_MONOCHRO	=  Ge(220)x2, 0.000000
*FILTER		=  None
*C_MONOCHRO	=  No_unit, 0.000000
*SLIT_NAME	=  0, 入射スリット
*SLIT_NAME	=  1, 受光スリット1
*SLIT_NAME	=  2, 受光スリット2
*COUNTER	=  HyPix 3000(H), 0
*POS_FORMAT	=  0
*SCAN_AXIS	=  2Theta/Omega
*MEAS_MODE	=  Continuous Scanning
*TARGET		=  29
*XRAY_CHAR	=  K-ALPHA1
*WAVE_LENGTH1	=  1.54059
*WAVE_LENGTH2	=  1.54441
*THICKNESS	=  0, 0.000000
*MU		=  0, 0.000000
*SCAN_MODE	=  2Theta/Omega
*SPEED_DIM	=  sec./step
*XUNIT		=  deg.
*YUNIT		=  counts
*SCALE_MODE	=  1
*REP_COUNT	=  0
*SE_COUNT	=  0
*STD_MATERIAL	=  Unknown, Unknown, 0.000000, 0.000000, 0.000000, 0.000000, 0.000000, 0.000000
*LATT_CONS	=  0, Unknown, Unknown, 0.000000, 0.000000, 0.000000, 0.000000, 0.000000, 0.000000
*SEC_COUNT	=  1
*TSPEC_SIZE	=  0
*EXTRA_SIZE	=  0
*MEMO		=

*BEGIN
*GROUP		=  0
*START		=  20
*STOP		=  90
*STEP		=  0.01
*OFFSET		=  0.000000
*SPEED		=  0.196312
*SLIT_SPEC	=  0, 0.500mm, 0.5, 0.000000
*SLIT_SPEC	=  1, 0.500mm, 0.5, 0.000000
*SLIT_SPEC	=  2, 0.500mm, 0.5, 0.000000
*KV		=  45
*MA		=  200
*LOW		=  0.000000
*HIGH		=  0.000000
*CTEMPER	=  0, 0.000000
*CTEMPER	=  1, 0.000000
*CTEMPER	=  2, 0.000000
*PAREX		=  0, 0.000000
*PAREX		=  1, 0.000000
*PAREX		=  2, 0.000000
*PAREX		=  3, 0.000000
*PAREX		=  4, 0.000000
*PAREX		=  5, 0.000000
*PAREX		=  6, 0.000000
*PAREX		=  7, 0.000000
*PAREX		=  8, 0.000000
*PAREX		=  9, 0.000000
*PAREX		=  10, 0.000000
*PAREX		=  11, 0.000000
*PAREX		=  12, 0.000000
*PAREX		=  13, 0.000000
*PAREX		=  14, 0.000000
*PAREX		=  15, 0.000000
*FULL_SCALE	=  1616736.8
*INDEX		=  0, 0, 0
*COUNT		=  7001
0.000000, 1.99566, 4.04265, 1.00139
2.99427, 1.99065, 2.96419, 1.97764
4.98377, 2.00797, 3.97564, 2.98487
1.00488, 2.95552, 0.000000, 0.992768
2.00892, 2.94178, 2.96226, 0.967456
5.97842, 0.973702, 0.000000, 0.987345
0.986472, 2.97747, 3.97682, 1.95998
5.97007, 1.9896, 2.96986, 4.89665
1.0284, 3.99961, 4.98475, 4.97982
1.96808, 2.98337, 3.99787, 2.9871
1.96746, 0.988162, 3.04044, 5.97143
4.02891, 3.98185, 4.98791, 2.98381
0.000000, 1.97151, 3.99796, 1.97581
5.04304, 2.96084, 2.00078, 3.97928
4.94508, 0.995984, 5.00056, 5.01153
4.97273, 0.000000, 3.99086, 2.97418
4.94466, 0.989105, 0.996913, 3.95031
0.971559, 3.00123, 5.95245, 0.978242
3.99484, 4.98486, 4.97153, 4.95718
3.92429, 1.95414, 1.00259, 1.95986
5.97931, 2.01891, 5.00662, 2.98293
6.99397, 0.995072, 4.0237, 0.000000
1.99988, 1.97789, 4.00659, 4.99138
2.97455, 0.997087, 1.02859, 4.9877
4.95853, 1.97211, 1.97219, 3.96082
2.98815, 4.96871, 1.9747, 2.95562
1.99445, 2.97777, 1.02767, 5.02271
2.96756, 3.97028, 4.97337, 5.01317
1.99867, 4.00514, 5.95749, 5.00581
1.00015, 2.97842, 1.96493, 4.99679
3.94706, 1.00377, 0.000000, 2.9729
3.03106, 6.96769, 2.98519, 7.00165
3.02296, 3.9871, 6.97147, 5.00257
2.99347, 4.9677, 1.98015, 3.96809
8.89918, 4.95115, 2.95856, 2.99109
2.99601, 7.02159, 5.00043, 7.17681
6.02611, 6.96819, 5.96769, 7.98781
10.9445, 8.15068, 10.8809, 8.98581
8.9468, 8.97707, 11.0389, 9.90073
34.8248, 29.9452, 40.6926, 32.1085
89.1426, 78.1334, 105.5, 80.6486
288.459, 318.881, 358.164, 339.017
145309, 106212, 79433.4, 58958.6
64.7912, 67.75, 69.4035, 52.5068
20.1668, 13.9659, 17.2431, 22.9874
11.121, 17.1385, 9.92114, 13.014
6.00806, 8.00998, 11.0667, 7.9045
7.02163, 7.02596, 10.8928, 4.00807
11.152, 4.96458, 5.97004, 8.94023
5.98567, 5.99442, 0.962919, 7.97581
4.99125, 3.98922, 6.98213, 5.97267
3.97673, 2.99141, 2.97536, 5.00953
4.99175, 5.93842, 3.0253, 4.94522
2.98439, 3.97025, 7.94843, 3.00286
3.02178, 3.95615, 2.97943, 3.02628
5.89829, 5.93187, 1.96022, 1.98417
3.95075, 0.988941, 2.99518, 1.97067
4.99716, 3.94377, 0.976638, 4.97552
2.98509, 2.96341, 2.97204, 3.94215
3.0068, 2.95481, 1.99862, 1.03058
5.95577, 4.95176, 5.97015, 5.02289
1.01996, 0.988941, 4.03513, 6.95452
3.94855, 2.96821, 1.0063, 2.03864
3.95136, 0.000000, 2.98394, 3.00866
3.9683, 1.01936, 2.97324, 1.98985
3.02733, 4.97631, 4.98388, 1.99659
1.00761, 3.98546, 7.04694, 4.00514
3.96342, 1.93324, 4.03865, 0.996603
6.01561, 4.94361, 1.97837, 4.00979
4.99999, 1.99616, 1.99117, 5.93769
1.97356, 2.97182, 4.9095, 1.9959
0.980006, 2.00395, 3.01901, 4.14663
1.99798, 2.03159, 2.98606, 4.01042
3.9721, 5.08256, 2.9864, 3.97483
0.989522, 5.97463, 0.998123, 2.97771
0.984658, 0.000000, 1.01147, 6.97292
3.9557, 1.99035, 5.99416, 1.99864
3.98949, 2.97854, 1.9789, 1.98682
0.996436, 6.94459, 7.91916, 4.94131
2.96608, 0.999617, 7.02068, 1.96542
4.99197, 1.99803, 6.92525, 0.000000
5.00496, 2.98398, 1.00478, 5.01235
4.9772, 3.99659, 1.94034, 4.93878
4.94022, 5.04922, 0.985518, 1.02883
2.95022, 2.97234, 6.97441, 2.01195
5.93019, 2.95661, 5.01791, 6.96221
5.99722, 2.96075, 6.00558, 9.94982
14.0226, 13.9661, 16.8745, 18.9553
9.91958, 2.97813, 1.97481, 5.00457
1.97961, 4.93875, 2.9348, 1.99231
0.000000, 6.95788, 1.98027, 4.95397
6.95584, 0.995842, 3.02537, 3.95163
3.95624, 7.98763, 2.02507, 3.00541
3.01231, 5.00048, 3.0425, 4.00269
1.98331, 2.98048, 2.95466, 3.99793
2.98573, 6.01578, 1.99207, 2.97394
1.00455, 3.01186, 2.01878, 3.96942
0.987011, 2.99573, 4.97083, 3.95283
4.02194, 1.99273, 0.974621, 2.02574
1.94771, 2.99643, 4.9918, 3.98031
1.97433, 2.99373, 0.990595, 5.00167
5.99325, 1.00127, 4.00854, 2.95655
3.99101, 6.84214, 2.99052, 2.02797
2.96837, 4.95331, 1.00393, 3.96125
3.98107, 2.97602, 1.01147, 4.00106
4.99936, 2.94882, 4.93158, 4.99929
2.98696, 3.9657, 1.98749, 1.95372
5.92043, 7.01783, 1.99194, 2.02691
2.97459, 4.99964, 1.01056, 3.97142
0.996773, 5.97221, 2.96897, 2.96335
3.95676, 1.98685, 4.9262, 2.97597
0.988968, 1.98241, 2.00174, 1.98171
3.96947, 2.02839, 3.0158, 0.997094
5.00774, 3.93025, 0.991942, 3.98995
0.000000, 2.95805, 3.97588, 4.01765
4.01566, 3.98479, 1.01009, 0.995809
1.00438, 2.96153, 4.00648, 3.93586
1.97025, 4.04303, 1.99557, 0.986464
2.98486, 3.97711, 4.028, 1.00146
1.98266, 2.99586, 0.988274, 2.97298
0.000000, 1.96702, 5.01389, 4.96475
2.00304, 2.99634, 0.979151, 5.95343
4.91668, 3.98207, 1.9778, 4.98114
5.00416, 3.98068, 4.01997, 3.99001
5.95904, 0.982887, 4.957, 4.03559
5.9977, 2.98685, 2.98922, 2.00066
4.96342, 1.98103, 4.96095, 2.99349
2.03726, 3.99882, 2.02173, 3.95057
2.95405, 4.98844, 3.00084, 5.93887
3.96594, 3.94155, 2.9877, 6.09395
3.97671, 7.00836, 1.99005, 2.96137
5.9372, 5.93368, 5.9952, 4.01419
2.96704, 1.00377, 1.99772, 2.97709
2.9985, 2.99591, 1.00776, 4.00572
6.00546, 5.95093, 4.94399, 1.99938
1.99735, 3.97484, 6.02265, 3.96194
6.00512, 0.99036, 7.01349, 3.97282
0.000000, 4.94945, 1.99214, 1.9908
5.00836, 3.98243, 8.00377, 1.00015
2.99271, 2.01167, 3.01669, 10.0322
5.96249, 4.97622, 1.97868, 4.01335
1.97444, 0.992145, 2.9856, 1.93932
4.96034, 6.00156, 3.97478, 3.00237
8.89757, 2.98754, 4.96258, 5.00058
7.93789, 2.99848, 1.0092, 5.93763
1.98003, 4.9751, 1.99304, 5.99344
6.01406, 2.00186, 4.94982, 2.98218
6.95015, 2.00399, 3.95768, 6.95064
1.98744, 4.98016, 3.94762, 4.97004
4.9308, 2.97164, 6.94873, 3.99351
1.94657, 3.01129, 2.99983, 5.97604
1.98465, 6.95156, 6.89873, 4.98321
5.98223, 3.99265, 5.97444, 5.95795
2.98825, 2.96171, 5.97361, 7.01219
4.00364, 2.96652, 7.01006, 3.9426
0.9976, 5.97482, 3.00512, 3.99581
7.94291, 6.98844, 4.98697, 3.04624
10.8936, 3.93032, 4.91974, 6.97737
5.00722, 4.96234, 7.95692, 2.98237
5.01842, 10.0079, 12.9133, 10.8971
8.93991, 12.0319, 6.97273, 6.98508
7.8903, 8.01104, 14.9186, 20.9485
10.9545, 11.9783, 18.9884, 14.9524
41.9933, 47.1234, 55.8548, 41.7202
134.893, 174.257, 150.955, 178.643
45587.7, 61011.9, 74353.8, 78840.8
110.692, 90.8602, 79.8499, 84.3439
28.226, 39.9327, 33.7935, 34.9918
22.2044, 21.9104, 13.07, 19.9229
9.96317, 16.9351, 8.96124, 18.8652
10.8969, 6.94993, 12.0055, 8.94132
6.93284, 9.02194, 6.02886, 5.9871
5.92982, 10.0018, 6.974, 5.96205
10.0734, 6.93686, 6.01561, 11.9409
5.99076, 5.11775, 11.9279, 7.95767
5.03543, 9.01214, 2.98186, 5.99918
3.98159, 5.91456, 6.95666, 3.9538
7.10497, 5.91438, 3.99299, 5.99732
4.96097, 7.0295, 7.95869, 5.94959
5.0117, 8.97285, 3.94515, 2.00547
4.0013, 2.99846, 3.96184, 2.99442
5.95691, 4.95283, 2.96103, 2.11443
6.94444, 3.98519, 6.9777, 2.95613
4.98358, 2.99635, 2.99557, 0.000000
5.00916, 8.99289, 0.979109, 3.02172
5.94251, 5.99412, 1.98078, 1.9954
3.95238, 6.00698, 1.92762, 4.92631
3.92142, 2.95044, 3.97638, 4.04421
3.91907, 1.9852, 0.975458, 6.06215
0.983507, 4.97573, 4.98456, 4.93163
4.04722, 7.94146, 6.94906, 4.97367
3.01017, 3.97928, 6.94862, 1.00488
4.94042, 3.91858, 2.96998, 1.97196
4.99596, 3.92472, 4.98562, 4.05361
2.00031, 4.07514, 4.9733, 3.99243
5.95671, 1.94718, 6.9907, 7.99564
2.98383, 1.99567, 3.96641, 4.01344
4.00456, 6.94299, 3.01187, 5.93644
3.99414, 1.0063, 2.98761, 0.994781
5.90616, 5.00292, 1.99717, 2.99087
2.96394, 3.99673, 3.0031, 3.97937
2.99491, 3.97813, 7.95575, 2.99243
3.01131, 5.03101, 5.88784, 0.972822
2.92533, 3.92926, 1.98849, 4.99421
3.96985, 5.01658, 3.01737, 2.99494
3.01704, 9.1079, 2.96518, 0.997802
3.99767, 0.000000, 5.96341, 3.00256
3.01272, 4.95568, 0.977834, 1.98746
3.95819, 2.96752, 6.92396, 4.94747
3.97964, 4.93001, 3.01607, 5.97375
2.01729, 3.97317, 1.95832, 3.99427
4.9753, 5.99972, 0.989273, 3.97181
5.99613, 4.94827, 2.00105, 5.90491
4.95927, 5.96153, 7.94443, 5.99909
5.97268, 7.00482, 2.96002, 1.93845
5.92768, 2.97199, 2.97689, 0.983409
1.97384, 6.98769, 3.95988, 3.96218
4.9777, 1.9466, 7.00465, 6.97254
7.96358, 6.90899, 3.97865, 2.98341
1.91838, 0.989868, 3.97772, 2.04351
4.02356, 2.02426, 0.000000, 6.99741
6.9694, 4.97889, 5.97929, 5.94783
4.94249, 0.992365, 4.94109, 1.99426
7.91288, 4.14397, 5.93391, 7.94936
4.94219, 5.95969, 3.9597, 6.91441
0.993811, 6.0128, 2.99046, 3.9642
4.01171, 5.98491, 8.11713, 5.94795
4.00677, 13.0565, 3.98844, 5.97572
1.9718, 2.99632, 4.98075, 6.98776
3.00847, 4.94185, 5.91343, 7.05369
1.97811, 2.99318, 4.0305, 0.000000
4.95718, 5.15292, 2.0129, 6.95612
4.95389, 4.95341, 1.04108, 1.96724
6.94393, 4.01643, 2.95959, 6.93455
3.95296, 5.97883, 2.98079, 2.97065
6.00902, 2.99065, 5.97111, 2.98647
2.97642, 1.99895, 0.996773, 3.97348
2.97818, 1.96582, 4.97063, 5.98126
4.95557, 4.98572, 3.00957, 3.93062
4.00783, 5.96901, 2.97162, 4.97399
4.98141, 0.000000, 6.90584, 5.91862
0.000000, 1.98668, 1.98223, 0.997664
0.978133, 6.00928, 5.94389, 3.99209
7.97801, 3.97683, 2.00419, 2.99712
3.96061, 3.97711, 3.99094, 2.01253
5.93489, 6.98953, 3.94935, 3.99645
3.00499, 2.00983, 1.98911, 5.95577
0.000000, 1.96563, 2.9769, 2.01102
5.95975, 3.95657, 3.94789, 3.00602
8.93047, 8.0457, 2.96508, 5.95222
4.99384
*END

*EOF